!SPECTROSCOPY
!THERMAL 265. 0.06 1 1 220. 0.06 0.035
Roman update June 2024: Grism
2.370000 0.310000 0.11 363
0.92500 0.00000 0.00000
0.92800 0.00000 0.00000
0.93100 0.00000 0.00000
0.93400 0.00000 0.00000
0.93700 0.00000 0.00000
0.94000 0.00000 0.00000
0.94300 0.00000 0.00000
0.94600 0.00000 0.00000
0.94900 0.00000 0.00000
0.95200 0.00000 0.00000
0.95500 0.00000 0.00000
0.95800 0.00000 0.00000
0.96100 0.00000 0.00000
0.96400 0.00000 0.00000
0.96700 0.00000 0.00000
0.97000 0.00000 0.00000
0.97300 0.00000 0.00000
0.97600 0.00000 0.00000
0.97900 0.00000 0.00000
0.98200 0.00000 0.00000
0.98500 0.00000 0.00000
0.98800 0.00046 0.00015
0.99100 0.01045 0.00358
0.99400 0.08167 0.02855
0.99700 0.28868 0.10303
1.00000 0.56644 0.20632
1.00300 0.64397 0.23930
1.00600 0.64563 0.24466
1.00900 0.64506 0.24919
1.01200 0.64462 0.25376
1.01500 0.64394 0.25821
1.01800 0.64340 0.26271
1.02100 0.64283 0.26717
1.02400 0.64226 0.27162
1.02700 0.64146 0.27595
1.03000 0.64095 0.28038
1.03300 0.64010 0.28464
1.03600 0.63944 0.28895
1.03900 0.63857 0.29314
1.04200 0.63762 0.29725
1.04500 0.63681 0.30140
1.04800 0.63581 0.30542
1.05100 0.63492 0.30946
1.05400 0.63390 0.31340
1.05700 0.63304 0.31737
1.06000 0.63152 0.32097
1.06300 0.63059 0.32482
1.06600 0.62912 0.32835
1.06900 0.62789 0.33195
1.07200 0.62675 0.33555
1.07500 0.62574 0.33917
1.07800 0.62442 0.34258
1.08100 0.62331 0.34605
1.08400 0.62207 0.34939
1.08700 0.62108 0.35282
1.09000 0.61988 0.35608
1.09300 0.61875 0.35933
1.09600 0.61768 0.36255
1.09900 0.61740 0.36619
1.10200 0.61705 0.36975
1.10500 0.61643 0.37310
1.10800 0.61592 0.37646
1.11100 0.61517 0.37962
1.11400 0.61478 0.38296
1.11700 0.61432 0.38620
1.12000 0.61394 0.38944
1.12300 0.61348 0.39258
1.12600 0.61269 0.39546
1.12900 0.61224 0.39850
1.13200 0.61196 0.40161
1.13500 0.61145 0.40451
1.13800 0.61091 0.40733
1.14100 0.61077 0.41038
1.14400 0.61020 0.41308
1.14700 0.60990 0.41591
1.15000 0.60935 0.41852
1.15300 0.60880 0.42107
1.15600 0.60847 0.42372
1.15900 0.60777 0.42606
1.16200 0.60737 0.42856
1.16500 0.60666 0.43077
1.16800 0.60617 0.43310
1.17100 0.60568 0.43536
1.17400 0.60487 0.43735
1.17700 0.60430 0.43945
1.18000 0.60405 0.44173
1.18300 0.60345 0.44370
1.18600 0.60276 0.44554
1.18900 0.60215 0.44740
1.19200 0.60141 0.44910
1.19500 0.60083 0.45087
1.19800 0.60029 0.45261
1.20100 0.59959 0.45418
1.20400 0.59912 0.45587
1.20700 0.59862 0.45748
1.21000 0.59776 0.45877
1.21300 0.59722 0.46024
1.21600 0.59666 0.46165
1.21900 0.59615 0.46306
1.22200 0.59570 0.46444
1.22500 0.59517 0.46573
1.22800 0.59462 0.46694
1.23100 0.59410 0.46812
1.23400 0.59339 0.46911
1.23700 0.59275 0.47011
1.24000 0.59239 0.47127
1.24300 0.59174 0.47215
1.24600 0.59109 0.47299
1.24900 0.59074 0.47403
1.25200 0.59013 0.47480
1.25500 0.58970 0.47567
1.25800 0.58918 0.47642
1.26100 0.58852 0.47701
1.26400 0.58818 0.47782
1.26700 0.58763 0.47842
1.27000 0.58713 0.47900
1.27300 0.58686 0.47973
1.27600 0.58613 0.48005
1.27900 0.58612 0.48091
1.28200 0.58540 0.48114
1.28500 0.58528 0.48182
1.28800 0.58489 0.48224
1.29100 0.58469 0.48278
1.29400 0.58434 0.48315
1.29700 0.58412 0.48359
1.30000 0.58405 0.48411
1.30300 0.58370 0.48437
1.30600 0.58364 0.48482
1.30900 0.58367 0.48531
1.31200 0.58407 0.48608
1.31500 0.58368 0.48615
1.31800 0.58383 0.48663
1.32100 0.58376 0.48689
1.32400 0.58390 0.48730
1.32700 0.58399 0.48762
1.33000 0.58392 0.48778
1.33300 0.58427 0.48825
1.33600 0.58423 0.48837
1.33900 0.58432 0.48855
1.34200 0.58419 0.48853
1.34500 0.58442 0.48877
1.34800 0.58455 0.48889
1.35100 0.58447 0.48882
1.35400 0.58425 0.48859
1.35700 0.58411 0.48839
1.36000 0.58410 0.48827
1.36300 0.58366 0.48776
1.36600 0.58341 0.48738
1.36900 0.58346 0.48723
1.37200 0.58312 0.48672
1.37500 0.58296 0.48633
1.37800 0.58279 0.48591
1.38100 0.58238 0.48525
1.38400 0.58196 0.48457
1.38700 0.58143 0.48377
1.39000 0.58122 0.48320
1.39300 0.58134 0.48289
1.39600 0.58089 0.48207
1.39900 0.58072 0.48146
1.40200 0.58016 0.48051
1.40500 0.58000 0.47986
1.40800 0.57935 0.47879
1.41100 0.57856 0.47757
1.41400 0.57813 0.47664
1.41700 0.57743 0.47546
1.42000 0.57729 0.47472
1.42300 0.57756 0.47429
1.42600 0.57827 0.47421
1.42900 0.57816 0.47343
1.43200 0.57823 0.47277
1.43500 0.57827 0.47207
1.43800 0.57826 0.47131
1.44100 0.57819 0.47049
1.44400 0.57828 0.46977
1.44700 0.57808 0.46880
1.45000 0.57826 0.46812
1.45300 0.57830 0.46730
1.45600 0.57833 0.46646
1.45900 0.57844 0.46567
1.46200 0.57850 0.46482
1.46500 0.57852 0.46393
1.46800 0.57870 0.46314
1.47100 0.57875 0.46223
1.47400 0.57896 0.46144
1.47700 0.57908 0.46055
1.48000 0.57929 0.45973
1.48300 0.57952 0.45890
1.48600 0.57968 0.45801
1.48900 0.57976 0.45703
1.49200 0.57999 0.45616
1.49500 0.58020 0.45526
1.49800 0.58043 0.45436
1.50100 0.58051 0.45333
1.50400 0.58087 0.45251
1.50700 0.58117 0.45162
1.51000 0.58117 0.45049
1.51300 0.58164 0.44971
1.51600 0.58173 0.44862
1.51900 0.58178 0.44749
1.52200 0.58199 0.44648
1.52500 0.58220 0.44546
1.52800 0.58249 0.44448
1.53100 0.58270 0.44342
1.53400 0.58279 0.44227
1.53700 0.58286 0.44110
1.54000 0.58319 0.44010
1.54300 0.58306 0.43876
1.54600 0.58341 0.43777
1.54900 0.58358 0.43663
1.55200 0.58353 0.43531
1.55500 0.58370 0.43416
1.55800 0.58355 0.43276
1.56100 0.58370 0.43157
1.56400 0.58399 0.43048
1.56700 0.58390 0.42910
1.57000 0.58420 0.42800
1.57300 0.58407 0.42658
1.57600 0.58432 0.42543
1.57900 0.58419 0.42399
1.58200 0.58424 0.42268
1.58500 0.58438 0.42143
1.58800 0.58464 0.42026
1.59100 0.58472 0.41895
1.59400 0.58505 0.41782
1.59700 0.58504 0.41644
1.60000 0.58548 0.41537
1.60300 0.58560 0.41407
1.60600 0.58594 0.41292
1.60900 0.58630 0.41177
1.61200 0.58673 0.41068
1.61500 0.58696 0.40944
1.61800 0.58759 0.40847
1.62100 0.58791 0.40728
1.62400 0.58833 0.40615
1.62700 0.58873 0.40500
1.63000 0.58901 0.40377
1.63300 0.58961 0.40275
1.63600 0.59004 0.40161
1.63900 0.59056 0.40052
1.64200 0.59085 0.39928
1.64500 0.59137 0.39819
1.64800 0.59156 0.39687
1.65100 0.59204 0.39574
1.65400 0.59207 0.39431
1.65700 0.59268 0.39326
1.66000 0.59297 0.39200
1.66300 0.59327 0.39074
1.66600 0.59358 0.38948
1.66900 0.59371 0.38810
1.67200 0.59389 0.38676
1.67500 0.59405 0.38540
1.67800 0.59437 0.38414
1.68100 0.59481 0.38296
1.68400 0.59508 0.38166
1.68700 0.59524 0.38030
1.69000 0.59551 0.37901
1.69300 0.59592 0.37779
1.69600 0.59613 0.37646
1.69900 0.59658 0.37527
1.70200 0.59710 0.37413
1.70500 0.59740 0.37284
1.70800 0.59782 0.37163
1.71100 0.59811 0.37034
1.71400 0.59850 0.36910
1.71700 0.59899 0.36793
1.72000 0.59942 0.36672
1.72300 0.59982 0.36550
1.72600 0.60031 0.36432
1.72900 0.60051 0.36297
1.73200 0.60103 0.36181
1.73500 0.60150 0.36062
1.73800 0.60170 0.35927
1.74100 0.60190 0.35793
1.74400 0.60239 0.35675
1.74700 0.60264 0.35543
1.75000 0.60266 0.35397
1.75300 0.60301 0.35271
1.75600 0.60324 0.35139
1.75900 0.60328 0.34995
1.76200 0.60357 0.34866
1.76500 0.60355 0.34719
1.76800 0.60368 0.34581
1.77100 0.60354 0.34428
1.77400 0.60357 0.34284
1.77700 0.60379 0.34152
1.78000 0.60399 0.34019
1.78300 0.60375 0.33861
1.78600 0.60370 0.33715
1.78900 0.60413 0.33595
1.79200 0.60416 0.33453
1.79500 0.60425 0.33315
1.79800 0.60422 0.33171
1.80100 0.60464 0.33051
1.80400 0.60474 0.32914
1.80700 0.60496 0.32784
1.81000 0.60539 0.32666
1.81300 0.60562 0.32537
1.81600 0.60610 0.32421
1.81900 0.60592 0.32271
1.82200 0.60610 0.32140
1.82500 0.60703 0.32048
1.82800 0.60769 0.31943
1.83100 0.60774 0.31806
1.83400 0.60784 0.31672
1.83700 0.60850 0.31567
1.84000 0.60907 0.31457
1.84300 0.60901 0.31315
1.84600 0.60910 0.31182
1.84900 0.60954 0.31066
1.85200 0.60930 0.30916
1.85500 0.60953 0.30791
1.85800 0.60962 0.30659
1.86100 0.60989 0.30536
1.86400 0.60981 0.30395
1.86700 0.60906 0.30222
1.87000 0.60898 0.30083
1.87300 0.60925 0.29962
1.87600 0.60925 0.29828
1.87900 0.60913 0.29688
1.88200 0.60867 0.29532
1.88500 0.60747 0.29342
1.88800 0.60515 0.29098
1.89100 0.60072 0.28754
1.89400 0.59102 0.28163
1.89700 0.57520 0.27285
1.90000 0.55042 0.25991
1.90300 0.51341 0.24133
1.90600 0.46335 0.21681
1.90900 0.40062 0.18661
1.91200 0.33015 0.15308
1.91500 0.25678 0.11852
1.91800 0.18713 0.08598
1.92100 0.12725 0.05820
1.92400 0.08028 0.03655
1.92700 0.04666 0.02115
1.93000 0.02499 0.01127
1.93300 0.01226 0.00551
1.93600 0.00550 0.00246
1.93900 0.00225 0.00100
1.94200 0.00085 0.00037
1.94500 0.00028 0.00012
1.94800 0.00008 0.00004
1.95100 0.00002 0.00001
1.95400 0.00000 0.00000
1.95700 0.00000 0.00000
1.96000 0.00000 0.00000
1.96300 0.00000 0.00000
1.96600 0.00000 0.00000
1.96900 0.00000 0.00000
1.97200 0.00000 0.00000
1.97500 0.00000 0.00000
1.97800 0.00000 0.00000
1.98100 0.00000 0.00000
1.98400 0.00000 0.00000
1.98700 0.00000 0.00000
1.99000 0.00000 0.00000
1.99300 0.00000 0.00000
1.99600 0.00000 0.00000
1.99900 0.00000 0.00000
2.00200 0.00000 0.00000
2.00500 0.00000 0.00000
2.00800 0.00000 0.00000
2.01100 0.00000 0.00000
