!SPECTROSCOPY
!THERMAL 265. 0.06 1 1 220. 0.06 0.035
Roman update June 2024: Prism
2.370000 0.310000 0.11 409
0.68800 0.00000 0.00000
0.69100 0.00000 0.00000
0.69400 0.00000 0.00000
0.69700 0.00000 0.00000
0.70000 0.00000 0.00000
0.70300 0.00000 0.00000
0.70600 0.00000 0.00000
0.70900 0.00000 0.00000
0.71200 0.00000 0.00000
0.71500 0.00000 0.00000
0.71800 0.00000 0.00000
0.72100 0.00000 0.00000
0.72400 0.00000 0.00000
0.72700 0.00000 0.00000
0.73000 0.00000 0.00000
0.73300 0.00000 0.00000
0.73600 0.00000 0.00000
0.73900 0.00000 0.00000
0.74200 0.00000 0.00000
0.74500 0.00000 0.00000
0.74800 0.00000 0.00000
0.75100 0.00042 0.00035
0.75400 0.01571 0.01314
0.75700 0.14093 0.11787
0.76000 0.39137 0.32733
0.76300 0.54333 0.45442
0.76600 0.57042 0.47708
0.76900 0.57523 0.48110
0.77200 0.57783 0.48327
0.77500 0.58080 0.48576
0.77800 0.58368 0.48817
0.78100 0.58648 0.49051
0.78400 0.58785 0.49165
0.78700 0.58894 0.49257
0.79000 0.59112 0.49439
0.79300 0.59313 0.49607
0.79600 0.59546 0.49802
0.79900 0.60058 0.50230
0.80200 0.59584 0.49834
0.80500 0.59909 0.50106
0.80800 0.60130 0.50291
0.81100 0.60180 0.50332
0.81400 0.60226 0.50371
0.81700 0.60346 0.50471
0.82000 0.60496 0.50597
0.82300 0.60810 0.50859
0.82600 0.60914 0.50946
0.82900 0.61228 0.51209
0.83200 0.61205 0.51190
0.83500 0.61322 0.51288
0.83800 0.61562 0.51489
0.84100 0.61624 0.51540
0.84400 0.61803 0.51690
0.84700 0.62204 0.52025
0.85000 0.62390 0.52180
0.85300 0.62658 0.52405
0.85600 0.62861 0.52575
0.85900 0.63147 0.52814
0.86200 0.63430 0.53050
0.86500 0.63810 0.53368
0.86800 0.64253 0.53739
0.87100 0.64474 0.53924
0.87400 0.64877 0.54261
0.87700 0.65099 0.54447
0.88000 0.65452 0.54742
0.88300 0.65740 0.54983
0.88600 0.65815 0.55046
0.88900 0.66040 0.55233
0.89200 0.66176 0.55347
0.89500 0.66328 0.55475
0.89800 0.66294 0.55446
0.90100 0.66331 0.55477
0.90400 0.66282 0.55436
0.90700 0.66235 0.55396
0.91000 0.66177 0.55348
0.91300 0.66114 0.55295
0.91600 0.66052 0.55243
0.91900 0.65981 0.55184
0.92200 0.65942 0.55151
0.92500 0.65943 0.55152
0.92800 0.65984 0.55187
0.93100 0.66065 0.55255
0.93400 0.66171 0.55343
0.93700 0.66332 0.55477
0.94000 0.66509 0.55626
0.94300 0.66660 0.55752
0.94600 0.66800 0.55869
0.94900 0.66970 0.56011
0.95200 0.67142 0.56155
0.95500 0.67257 0.56252
0.95800 0.67394 0.56366
0.96100 0.67498 0.56453
0.96400 0.67602 0.56540
0.96700 0.67675 0.56601
0.97000 0.67776 0.56685
0.97300 0.67845 0.56743
0.97600 0.67914 0.56801
0.97900 0.67988 0.56863
0.98200 0.68043 0.56909
0.98500 0.68078 0.56938
0.98800 0.68139 0.56989
0.99100 0.68147 0.56996
0.99400 0.68180 0.57023
0.99700 0.68211 0.57049
1.00000 0.68271 0.57099
1.00300 0.68293 0.57118
1.00600 0.68310 0.57132
1.00900 0.68333 0.57151
1.01200 0.68370 0.57182
1.01500 0.68377 0.57188
1.01800 0.68399 0.57207
1.02100 0.68418 0.57222
1.02400 0.68434 0.57236
1.02700 0.68425 0.57228
1.03000 0.68447 0.57246
1.03300 0.68431 0.57233
1.03600 0.68432 0.57234
1.03900 0.68412 0.57217
1.04200 0.68381 0.57191
1.04500 0.68363 0.57176
1.04800 0.68325 0.57145
1.05100 0.68298 0.57122
1.05400 0.68256 0.57087
1.05700 0.68230 0.57065
1.06000 0.68131 0.56982
1.06300 0.68095 0.56952
1.06600 0.68000 0.56872
1.06900 0.67929 0.56813
1.07200 0.67868 0.56762
1.07500 0.67818 0.56721
1.07800 0.67736 0.56652
1.08100 0.67675 0.56601
1.08400 0.67598 0.56537
1.08700 0.67548 0.56495
1.09000 0.67474 0.56433
1.09300 0.67408 0.56377
1.09600 0.67346 0.56326
1.09900 0.67371 0.56346
1.10200 0.67387 0.56360
1.10500 0.67372 0.56348
1.10800 0.67369 0.56345
1.11100 0.67339 0.56320
1.11400 0.67348 0.56327
1.11700 0.67349 0.56328
1.12000 0.67357 0.56335
1.12300 0.67357 0.56335
1.12600 0.67319 0.56303
1.12900 0.67317 0.56302
1.13200 0.67335 0.56316
1.13500 0.67326 0.56309
1.13800 0.67314 0.56299
1.14100 0.67344 0.56324
1.14400 0.67327 0.56310
1.14700 0.67339 0.56320
1.15000 0.67323 0.56307
1.15300 0.67307 0.56293
1.15600 0.67314 0.56299
1.15900 0.67279 0.56269
1.16200 0.67278 0.56269
1.16500 0.67241 0.56238
1.16800 0.67228 0.56227
1.17100 0.67215 0.56216
1.17400 0.67167 0.56176
1.17700 0.67142 0.56156
1.18000 0.67156 0.56166
1.18300 0.67128 0.56143
1.18600 0.67090 0.56112
1.18900 0.67061 0.56087
1.19200 0.67017 0.56051
1.19500 0.66990 0.56028
1.19800 0.66968 0.56010
1.20100 0.66927 0.55975
1.20400 0.66911 0.55962
1.20700 0.66892 0.55946
1.21000 0.66832 0.55896
1.21300 0.66807 0.55875
1.21600 0.66780 0.55852
1.21900 0.66758 0.55834
1.22200 0.66742 0.55821
1.22500 0.66718 0.55800
1.22800 0.66690 0.55777
1.23100 0.66664 0.55756
1.23400 0.66619 0.55717
1.23700 0.66580 0.55685
1.24000 0.66572 0.55679
1.24300 0.66531 0.55644
1.24600 0.66490 0.55610
1.24900 0.66482 0.55603
1.25200 0.66446 0.55573
1.25500 0.66428 0.55558
1.25800 0.66400 0.55534
1.26100 0.66356 0.55497
1.26400 0.66348 0.55491
1.26700 0.66315 0.55464
1.27000 0.66289 0.55441
1.27300 0.66287 0.55440
1.27600 0.66235 0.55396
1.27900 0.66261 0.55418
1.28200 0.66208 0.55374
1.28500 0.66222 0.55386
1.28800 0.66206 0.55372
1.29100 0.66211 0.55376
1.29400 0.66199 0.55366
1.29700 0.66201 0.55368
1.30000 0.66220 0.55384
1.30300 0.66207 0.55373
1.30600 0.66227 0.55390
1.30900 0.66256 0.55414
1.31200 0.66327 0.55474
1.31500 0.66309 0.55458
1.31800 0.66352 0.55495
1.32100 0.66369 0.55508
1.32400 0.66412 0.55544
1.32700 0.66446 0.55573
1.33000 0.66464 0.55588
1.33300 0.66527 0.55641
1.33600 0.66548 0.55658
1.33900 0.66582 0.55687
1.34200 0.66592 0.55695
1.34500 0.66642 0.55737
1.34800 0.66681 0.55769
1.35100 0.66696 0.55782
1.35400 0.66694 0.55781
1.35700 0.66702 0.55787
1.36000 0.66723 0.55805
1.36300 0.66696 0.55782
1.36600 0.66690 0.55777
1.36900 0.66719 0.55801
1.37200 0.66701 0.55787
1.37500 0.66706 0.55790
1.37800 0.66709 0.55793
1.38100 0.66683 0.55771
1.38400 0.66658 0.55750
1.38700 0.66618 0.55717
1.39000 0.66615 0.55714
1.39300 0.66651 0.55744
1.39600 0.66620 0.55719
1.39900 0.66621 0.55719
1.40200 0.66578 0.55683
1.40500 0.66579 0.55684
1.40800 0.66526 0.55640
1.41100 0.66455 0.55580
1.41400 0.66426 0.55556
1.41700 0.66365 0.55506
1.42000 0.66369 0.55508
1.42300 0.66419 0.55550
1.42600 0.66521 0.55636
1.42900 0.66528 0.55642
1.43200 0.66555 0.55664
1.43500 0.66578 0.55684
1.43800 0.66596 0.55699
1.44100 0.66607 0.55707
1.44400 0.66636 0.55732
1.44700 0.66631 0.55728
1.45000 0.66671 0.55761
1.45300 0.66694 0.55780
1.45600 0.66715 0.55798
1.45900 0.66746 0.55824
1.46200 0.66771 0.55845
1.46500 0.66792 0.55862
1.46800 0.66830 0.55894
1.47100 0.66853 0.55914
1.47400 0.66895 0.55949
1.47700 0.66927 0.55975
1.48000 0.66968 0.56010
1.48300 0.67012 0.56046
1.48600 0.67048 0.56077
1.48900 0.67074 0.56098
1.49200 0.67118 0.56135
1.49500 0.67159 0.56169
1.49800 0.67202 0.56206
1.50100 0.67229 0.56228
1.50400 0.67287 0.56276
1.50700 0.67337 0.56319
1.51000 0.67354 0.56333
1.51300 0.67425 0.56392
1.51600 0.67450 0.56413
1.51900 0.67473 0.56432
1.52200 0.67513 0.56465
1.52500 0.67554 0.56500
1.52800 0.67604 0.56541
1.53100 0.67643 0.56575
1.53400 0.67670 0.56596
1.53700 0.67693 0.56616
1.54000 0.67747 0.56661
1.54300 0.67747 0.56661
1.54600 0.67804 0.56708
1.54900 0.67838 0.56737
1.55200 0.67847 0.56745
1.55500 0.67882 0.56774
1.55800 0.67880 0.56772
1.56100 0.67912 0.56799
1.56400 0.67960 0.56839
1.56700 0.67965 0.56843
1.57000 0.68015 0.56885
1.57300 0.68014 0.56884
1.57600 0.68058 0.56921
1.57900 0.68057 0.56920
1.58200 0.68077 0.56938
1.58500 0.68108 0.56963
1.58800 0.68152 0.57000
1.59100 0.68175 0.57019
1.59400 0.68227 0.57063
1.59700 0.68240 0.57074
1.60000 0.68305 0.57128
1.60300 0.68333 0.57151
1.60600 0.68387 0.57196
1.60900 0.68442 0.57242
1.61200 0.68506 0.57296
1.61500 0.68547 0.57330
1.61800 0.68633 0.57403
1.62100 0.68685 0.57446
1.62400 0.68747 0.57497
1.62700 0.68806 0.57547
1.63000 0.68853 0.57586
1.63300 0.68936 0.57656
1.63600 0.69001 0.57710
1.63900 0.69074 0.57771
1.64200 0.69120 0.57809
1.64500 0.69194 0.57871
1.64800 0.69229 0.57900
1.65100 0.69298 0.57959
1.65400 0.69313 0.57971
1.65700 0.69397 0.58042
1.66000 0.69445 0.58082
1.66300 0.69493 0.58121
1.66600 0.69542 0.58163
1.66900 0.69570 0.58185
1.67200 0.69603 0.58214
1.67500 0.69633 0.58239
1.67800 0.69684 0.58281
1.68100 0.69748 0.58335
1.68400 0.69791 0.58371
1.68700 0.69822 0.58396
1.69000 0.69867 0.58434
1.69300 0.69926 0.58483
1.69600 0.69963 0.58514
1.69900 0.70027 0.58568
1.70200 0.70100 0.58629
1.70500 0.70148 0.58669
1.70800 0.70208 0.58720
1.71100 0.70253 0.58757
1.71400 0.70312 0.58806
1.71700 0.70381 0.58864
1.72000 0.70442 0.58915
1.72300 0.70502 0.58965
1.72600 0.70572 0.59024
1.72900 0.70606 0.59052
1.73200 0.70678 0.59113
1.73500 0.70744 0.59168
1.73800 0.70779 0.59197
1.74100 0.70814 0.59227
1.74400 0.70883 0.59284
1.74700 0.70923 0.59317
1.75000 0.70937 0.59329
1.75300 0.70988 0.59372
1.75600 0.71027 0.59404
1.75900 0.71043 0.59417
1.76200 0.71084 0.59452
1.76500 0.71088 0.59456
1.76800 0.71105 0.59469
1.77100 0.71078 0.59447
1.77400 0.71053 0.59426
1.77700 0.71020 0.59399
1.78000 0.70934 0.59327
1.78300 0.70723 0.59150
1.78600 0.70429 0.58905
1.78900 0.70044 0.58582
1.79200 0.69409 0.58051
1.79500 0.68479 0.57274
1.79800 0.67056 0.56083
1.80100 0.64880 0.54263
1.80400 0.61376 0.51333
1.80700 0.56041 0.46871
1.81000 0.48582 0.40632
1.81300 0.39265 0.32839
1.81600 0.29126 0.24360
1.81900 0.19520 0.16326
1.82200 0.11716 0.09799
1.82500 0.06275 0.05248
1.82800 0.03012 0.02519
1.83100 0.01318 0.01103
1.83400 0.00541 0.00452
1.83700 0.00213 0.00178
1.84000 0.00080 0.00067
1.84300 0.00029 0.00024
1.84600 0.00010 0.00008
1.84900 0.00003 0.00003
1.85200 0.00001 0.00001
1.85500 0.00000 0.00000
1.85800 0.00000 0.00000
1.86100 0.00000 0.00000
1.86400 0.00000 0.00000
1.86700 0.00000 0.00000
1.87000 0.00000 0.00000
1.87300 0.00000 0.00000
1.87600 0.00000 0.00000
1.87900 0.00000 0.00000
1.88200 0.00000 0.00000
1.88500 0.00000 0.00000
1.88800 0.00000 0.00000
1.89100 0.00000 0.00000
1.89400 0.00000 0.00000
1.89700 0.00000 0.00000
1.90000 0.00000 0.00000
1.90300 0.00000 0.00000
1.90600 0.00000 0.00000
1.90900 0.00000 0.00000
1.91200 0.00000 0.00000
